Transcript: A787_001109_cleaned.txt Sampling_interval: 30000.0 Prop_TTS: 0.05 TTS: 2049968.35 Feature: xds(A)
30000.0 68
5563.01 6788.08 5703.6 8344.52 7300.2 7039.12 4789.82 6647.5 7430.74 5512.81 6516.96 8485.1 7280.12 6055.05 7832.4 5974.72 7320.28 8063.36 5894.38 8053.32 8555.39 6376.38 6075.13 5864.26 6205.67 6898.54 7581.36 6165.51 5231.64 5462.6 7450.82 7129.49 6376.38 7882.61 8886.76 6898.54 7260.03 7099.37 8133.65 5352.14 5583.1 8093.48 7019.04 6617.38 6868.41 6296.05 6557.13 6808.17 6426.59 6004.84 7400.62 7551.24 8505.19 9318.55 7089.33 6336.21 6215.71 6818.21 6306.09 6316.13 7310.24 6215.71 7089.33 5844.18 6707.75 6627.42 6205.67 7179.7 6848.33 6778.04 8766.27 6235.8 6486.84 6175.55 7782.19 6135.38 6727.83 6527.0 5783.93 5643.35 6908.58 6968.83 8103.52 6848.33 6316.13 4709.48 5472.64 5633.3 6516.96 7310.24 4157.2 6306.09 6416.54 7671.74 7681.78 6055.05 6145.42 7541.2 5904.43 5191.48
Transcript: A787_001109_cleaned.txt Sampling_interval: 30000.0 Prop_TTS: 0.1 TTS: 4099936.7 Feature: xds(A)
30000.0 136
6863.39 6416.54 7044.14 6501.9 5643.35 6521.98 6466.75 7706.88 7390.57 5723.68 6019.9 7169.66 6060.07 7516.09 7832.4 5708.62 6386.42 5472.64 6491.86 5623.26 7249.99 7079.29 7229.91 7691.82 6793.1 6798.12 7475.93 7485.97 7390.57 5542.93 6577.21 8690.95 6331.19 6250.86 7315.26 7490.99 7209.83 7089.33 5728.7 6903.56 6165.51 8038.25 6692.69 7144.56 7034.1 5763.84 7516.09 6722.81 5899.41 7295.18 6250.86 8153.73 8153.73 6125.34 7214.85 6607.33 7019.04 8555.39 6260.9 7922.78 5226.62 6963.81 6255.88 7255.01 6426.59 7320.28 5949.61 5804.01 6291.03 7475.93 6687.67 6527.0 6190.61 6140.4 7194.76 6667.58 6803.14 7556.26 7887.63 6401.48 6742.9 7606.47 7586.38 6642.48 6391.44 5683.51 7094.35 7134.52 7094.35 6878.46 6521.98 5798.99 7777.17 7867.55 5934.55 6983.89 7767.13 6361.32 7104.39 7365.47
Transcript: A787_001109_cleaned.txt Sampling_interval: 30000.0 Prop_TTS: 0.2 TTS: 8199873.4 Feature: xds(A)
30000.0 273
6986.4 7571.32 7490.99 6323.66 6873.44 6235.8 5711.13 6752.94 7731.99 6444.16 7174.68 6082.66 5881.83 7390.57 6908.58 7034.1 6371.36 6697.71 6913.6 7704.37 7591.41 6313.62 6885.99 7367.98 6833.27 7034.1 6865.9 7327.81 6823.23 6597.29 6544.57 6564.66 6303.58 6403.99 6845.82 6961.3 7252.5 6750.43 6245.84 7448.31 6617.38 7262.54 8221.51 6953.77 6218.22 7619.02 6637.46 7227.4 5585.61 6582.23 6677.63 6494.37 7064.22 6532.02 6343.74 7207.32 5560.5 8000.6 7706.88 7182.21 6795.61 6557.13 7337.86 6835.78 5372.22 6762.98 7237.44 6456.71 6516.96 6326.17 6569.68 6486.84 7084.31 6685.16 7490.99 6348.76 6765.49 7081.8 6351.27 7302.71 7237.44 6973.85 7970.47 7330.33 6039.99 6687.67 6125.34 5698.57 7209.83 6454.2 5625.77 6785.57 7666.72 7214.85 6798.12 6642.48 6112.79 6456.71 7644.12 6293.54
Transcript: A787_001109_cleaned.txt Sampling_interval: 30000.0 Prop_TTS: 0.3 TTS: 12299810.1 Feature: xds(A)
30000.0 409
6706.08 7136.19 6794.78 7186.4 7173.01 7300.2 6652.52 6254.21 6806.49 6142.08 6804.82 6291.03 6779.71 6511.94 7542.87 6505.25 7475.93 6905.23 7082.63 6933.68 8111.89 6404.83 6419.89 6547.08 6779.71 6296.05 6798.12 6332.87 7541.2 7368.82 6828.25 7097.7 6664.24 7116.11 6133.71 7435.76 6650.85 6744.57 7111.08 7561.28 6326.17 7313.59 6744.57 7265.06 7092.68 6573.86 6286.0 7096.02 6533.7 7370.49 6778.04 6317.8 6783.06 6368.01 7355.43 6942.05 6804.82 6945.4 6624.07 6856.7 7166.31 6346.25 6660.89 6414.87 6823.23 7276.77 6803.14 7121.13 7208.15 6711.1 7432.41 6563.82 6558.8 7802.28 7236.6 5835.81 7783.87 6746.24 6632.44 6915.27 7042.47 6824.9 6836.62 7047.49 6783.06 6953.77 6935.36 7370.49 6061.74 6520.31 6617.38 7283.46 7092.68 7258.36 7703.54 6786.41 6244.17 6910.25 5616.57 7203.13
Transcript: A787_001109_cleaned.txt Sampling_interval: 30000.0 Prop_TTS: 0.4 TTS: 16399746.8 Feature: xds(A)
30000.0 546
6978.87 6326.17 6975.11 6524.49 6941.22 6653.78 6658.8 6624.91 6306.09 6329.94 6971.34 6660.05 7204.81 6375.12 6587.25 7494.76 6260.9 7636.59 6794.36 6803.14 7065.48 7698.1 7365.47 5974.72 6745.41 7226.14 6957.53 6656.29 5977.23 6848.33 6662.56 6562.15 6580.98 7044.14 6211.95 7315.26 6873.44 6204.42 6709.0 7206.06 6533.28 7517.35 6444.16 6681.39 7021.55 7050.42 6627.42 6299.81 6671.35 6961.3 6762.98 6609.84 6823.23 6506.92 6795.61 6826.99 6914.86 6893.52 5878.07 6296.05 6765.49 6474.28 6697.71 7346.64 6656.29 6131.62 6712.77 6429.1 7071.76 6303.58 7438.27 7290.16 7440.78 7062.97 6783.06 6913.6 6439.14 6273.45 6509.43 6761.72 6809.42 6705.24 7730.73 6557.13 7429.49 7376.77 6790.59 6997.7 6524.49 6884.73 6833.27 7051.67 6527.0 6644.99 7409.4 6907.33 6304.83 6850.84 6872.18 6760.47
Transcript: A787_001109_cleaned.txt Sampling_interval: 30000.0 Prop_TTS: 0.5 TTS: 20499683.5 Feature: xds(A)
30000.0 683
6811.18 7084.31 6802.14 6833.27 6604.32 6780.05 6667.58 6968.83 6779.04 6677.63 6589.26 7525.13 7025.06 6717.79 6583.23 6274.96 7296.18 6703.73 6252.87 6851.34 6837.29 6538.05 6291.03 7119.45 6986.9 7511.07 6846.32 6792.1 7318.28 7323.3 6341.23 6595.28 6466.75 6682.65 7183.72 7132.51 6931.68 7028.07 6696.7 6660.55 6779.04 7128.49 6627.42 6476.79 6900.55 6590.26 6551.1 7017.03 6709.76 7381.54 7111.42 6721.81 6808.17 6575.2 7274.09 6724.82 7048.16 6476.79 6849.34 7002.97 7459.86 6669.59 6940.71 6572.19 6625.41 6625.41 7323.3 6784.07 7022.05 7013.01 7377.52 7184.72 7342.38 7144.56 6863.39 6544.07 6654.53 6948.75 7110.42 6321.15 7237.94 7066.23 6552.11 6586.25 7222.88 6120.32 6483.82 6709.76 6823.23 7382.54 7146.56 6514.95 7183.72 7108.41 7076.27 6531.02 7151.59 6313.12 6946.74 7034.1
Transcript: A787_001109_cleaned.txt Sampling_interval: 30000.0 Prop_TTS: 0.6 TTS: 24599620.2 Feature: xds(A)
30000.0 819
6542.9 6506.92 6630.76 6474.28 6501.06 6917.79 6354.62 6834.94 7281.79 7513.58 6432.44 6770.51 7560.44 7068.41 6486.84 6967.16 6460.06 6906.91 6470.1 7356.27 6344.58 6809.0 6962.14 6727.0 6625.74 6916.11 6894.35 7006.49 6578.05 6897.7 6798.96 6988.91 6700.22 6873.44 7198.11 6822.39 7181.38 7191.42 6656.71 6373.03 7080.12 6824.9 6805.65 7111.08 6932.01 6706.91 7353.76 7198.95 6726.16 6767.16 6644.99 6839.96 7312.75 6459.22 7400.62 6796.45 6906.91 7088.49 7427.39 7192.25 7030.75 6339.56 7038.28 7476.76 6852.52 6496.04 6926.99 7124.47 6759.63 6299.39 6631.6 6587.25 6260.9 6590.6 6580.56 6891.01 7197.27 6852.52 7146.23 6411.52 6947.91 7178.03 6617.38 6852.52 6648.34 6899.38 7188.07 6748.75 7122.8 6503.57 6781.39 6914.44 6920.3 6829.08 5990.62 6786.41 6463.41 6760.47 6825.74 7043.3
Transcript: A787_001109_cleaned.txt Sampling_interval: 30000.0 Prop_TTS: 0.7 TTS: 28699556.9 Feature: xds(A)
30000.0 956
6996.09 6701.29 6454.56 6670.45 6589.4 6732.14 6938.71 6981.74 7321.0 6706.32 7061.36 6806.01 6549.24 6668.3 7151.73 6909.3 7100.09 6901.41 6915.75 6710.62 7024.06 6853.35 7088.61 6632.44 6435.91 6732.85 6800.28 7034.82 7154.6 6767.28 6737.16 7173.96 6859.09 6703.45 6775.17 6657.54 6910.01 7040.56 6500.46 7045.58 7140.25 7440.06 6808.88 6753.65 6765.85 6793.1 6839.72 7312.39 7261.47 7191.9 6889.21 6917.19 6610.2 6983.17 6476.79 6703.45 6544.22 7249.99 6889.93 6537.76 6903.56 7119.45 6291.74 6657.54 6766.56 6928.66 6855.5 7450.11 7163.92 6669.74 7025.49 6410.09 6667.58 7304.5 6750.78 6485.4 7045.58 6764.41 6629.57 6396.46 6903.56 7025.49 6527.0 6717.79 7401.33 6698.43 6815.34 6835.42 6764.41 6901.41 7029.08 7078.57 6819.64 6593.71 6911.45 7092.2 6704.16 6945.88 6927.95 6469.62
Transcript: A787_001109_cleaned.txt Sampling_interval: 30000.0 Prop_TTS: 0.8 TTS: 32799493.6 Feature: xds(A)
30000.0 1093
6706.49 6796.24 7014.64 6981.38 7264.43 6751.68 6990.8 6699.59 7353.55 6866.53 7115.69 7194.14 6624.91 7570.69 6548.34 7012.76 6926.15 6344.37 6457.34 7066.73 7039.12 7114.43 7274.47 6881.59 7392.46 6874.06 7160.25 6675.11 6730.34 6844.57 6810.05 6729.72 7191.0 6774.27 6211.95 6750.43 6654.4 7096.86 7010.88 6882.85 7168.41 6768.63 6890.38 6515.71 7339.11 6682.02 6732.85 7166.52 6813.81 6320.52 7089.33 6432.86 6785.57 6541.44 7325.3 6559.01 6869.67 6832.01 7001.46 7062.34 6358.18 6975.73 6761.72 7249.99 7172.8 7158.99 6793.73 6859.63 6979.5 6931.17 6746.03 6794.36 7212.96 6677.0 6672.6 6819.46 7053.56 6765.49 6730.97 6344.37 6656.91 6645.62 7002.72 6687.67 7076.15 6546.46 6330.56 6651.27 7283.26 6701.47 6572.82 7054.81 6446.67 6906.07 6826.99 6506.29 6796.24 6959.42 7528.65 7448.94
Transcript: A787_001109_cleaned.txt Sampling_interval: 30000.0 Prop_TTS: 0.9 TTS: 36899430.300000004 Feature: xds(A)
30000.0 1229
6969.39 7072.03 7112.2 6771.35 6304.41 6525.33 6591.16 6399.81 7161.29 6373.03 7101.6 6298.84 6840.52 6756.28 6630.76 7072.59 6797.01 7271.75 6808.17 7016.81 7129.49 6689.9 7245.53 6846.66 6797.57 6776.92 6691.57 6859.49 6831.04 7027.41 6737.87 6503.57 7111.08 6859.49 6911.37 6740.66 6692.69 6503.57 6638.57 6901.33 7329.77 6601.2 6698.82 6901.33 6755.73 6716.68 6539.27 6790.31 6616.82 6579.44 6850.56 6808.17 6833.83 6546.53 7061.99 6799.8 6578.33 7169.66 7455.29 6776.37 6691.57 7046.93 6945.96 6703.84 6562.71 6948.75 6779.71 7161.85 7266.17 6767.44 7116.66 6409.29 7093.23 7401.17 6767.44 6805.93 6689.34 6825.46 7044.14 6591.71 6343.46 6585.02 7036.33 6904.12 7318.05 6517.52 7213.17 6917.51 7462.54 6776.37 7141.21 6920.85 6876.22 6760.75 6639.69 6833.27 7214.85 6696.59 7420.7 7141.21
